# Cooling curve : CIE: [Fe/H] =  0.5
#
# log(T/K) ne   nH nt    log(Lambda_net)
#
4.00 0.1076E+00 1.0000 1.1033 -23.4394
4.02 0.1099E+00 1.0000 1.1033 -23.3626
4.04 0.1133E+00 1.0000 1.1033 -23.2741
4.06 0.1183E+00 1.0000 1.1033 -23.1707
4.08 0.1269E+00 1.0000 1.1033 -23.0398
4.10 0.1421E+00 1.0000 1.1033 -22.8913
4.12 0.1698E+00 1.0000 1.1033 -22.7114
4.14 0.2194E+00 1.0000 1.1033 -22.5018
4.16 0.3000E+00 1.0000 1.1033 -22.2683
4.18 0.4099E+00 1.0000 1.1033 -22.0663
4.20 0.5347E+00 1.0000 1.1033 -21.9090
4.22 0.6548E+00 1.0000 1.1033 -21.8038
4.24 0.7558E+00 1.0000 1.1033 -21.7316
4.26 0.8330E+00 1.0000 1.1033 -21.7069
4.28 0.8883E+00 1.0000 1.1033 -21.7038
4.30 0.9265E+00 1.0000 1.1033 -21.7118
4.32 0.9528E+00 1.0000 1.1033 -21.7112
4.34 0.9711E+00 1.0000 1.1033 -21.7228
4.36 0.9848E+00 1.0000 1.1033 -21.7303
4.38 0.9963E+00 1.0000 1.1033 -21.7322
4.40 0.1007E+01 1.0000 1.1033 -21.7187
4.42 0.1019E+01 1.0000 1.1033 -21.7089
4.44 0.1033E+01 1.0000 1.1033 -21.6930
4.46 0.1047E+01 1.0000 1.1033 -21.6722
4.48 0.1060E+01 1.0000 1.1033 -21.6423
4.50 0.1072E+01 1.0000 1.1033 -21.6164
4.52 0.1081E+01 1.0000 1.1033 -21.5882
4.54 0.1088E+01 1.0000 1.1033 -21.5582
4.56 0.1093E+01 1.0000 1.1033 -21.5232
4.58 0.1096E+01 1.0000 1.1033 -21.4905
4.60 0.1099E+01 1.0000 1.1033 -21.4567
4.62 0.1100E+01 1.0000 1.1033 -21.4220
4.64 0.1102E+01 1.0000 1.1033 -21.3845
4.66 0.1103E+01 1.0000 1.1033 -21.3489
4.68 0.1104E+01 1.0000 1.1033 -21.3128
4.70 0.1104E+01 1.0000 1.1033 -21.2761
4.72 0.1106E+01 1.0000 1.1033 -21.2385
4.74 0.1107E+01 1.0000 1.1033 -21.2016
4.76 0.1109E+01 1.0000 1.1033 -21.1643
4.78 0.1112E+01 1.0000 1.1033 -21.1270
4.80 0.1116E+01 1.0000 1.1033 -21.0889
4.82 0.1121E+01 1.0000 1.1033 -21.0521
4.84 0.1129E+01 1.0000 1.1033 -21.0163
4.86 0.1138E+01 1.0000 1.1033 -20.9825
4.88 0.1149E+01 1.0000 1.1033 -20.9509
4.90 0.1160E+01 1.0000 1.1033 -20.9237
4.92 0.1170E+01 1.0000 1.1033 -20.8999
4.94 0.1179E+01 1.0000 1.1033 -20.8792
4.96 0.1186E+01 1.0000 1.1033 -20.8601
4.98 0.1192E+01 1.0000 1.1033 -20.8443
5.00 0.1196E+01 1.0000 1.1033 -20.8319
5.02 0.1199E+01 1.0000 1.1033 -20.8235
5.04 0.1202E+01 1.0000 1.1033 -20.8209
5.06 0.1204E+01 1.0000 1.1033 -20.8224
5.08 0.1206E+01 1.0000 1.1033 -20.8269
5.10 0.1207E+01 1.0000 1.1033 -20.8313
5.12 0.1208E+01 1.0000 1.1033 -20.8330
5.14 0.1209E+01 1.0000 1.1033 -20.8317
5.16 0.1209E+01 1.0000 1.1033 -20.8272
5.18 0.1210E+01 1.0000 1.1033 -20.8203
5.20 0.1210E+01 1.0000 1.1033 -20.8122
5.22 0.1211E+01 1.0000 1.1033 -20.8047
5.24 0.1211E+01 1.0000 1.1033 -20.7984
5.26 0.1211E+01 1.0000 1.1033 -20.7937
5.28 0.1212E+01 1.0000 1.1033 -20.7898
5.30 0.1212E+01 1.0000 1.1033 -20.7863
5.32 0.1212E+01 1.0000 1.1033 -20.7824
5.34 0.1213E+01 1.0000 1.1033 -20.7787
5.36 0.1213E+01 1.0000 1.1033 -20.7765
5.38 0.1213E+01 1.0000 1.1033 -20.7784
5.40 0.1214E+01 1.0000 1.1033 -20.7878
5.42 0.1214E+01 1.0000 1.1033 -20.8080
5.44 0.1215E+01 1.0000 1.1033 -20.8414
5.46 0.1215E+01 1.0000 1.1033 -20.8882
5.48 0.1216E+01 1.0000 1.1033 -20.9446
5.50 0.1216E+01 1.0000 1.1033 -21.0040
5.52 0.1216E+01 1.0000 1.1033 -21.0596
5.54 0.1217E+01 1.0000 1.1033 -21.1068
5.56 0.1217E+01 1.0000 1.1033 -21.1435
5.58 0.1217E+01 1.0000 1.1033 -21.1699
5.60 0.1217E+01 1.0000 1.1033 -21.1876
5.62 0.1217E+01 1.0000 1.1033 -21.1988
5.64 0.1217E+01 1.0000 1.1033 -21.2057
5.66 0.1218E+01 1.0000 1.1033 -21.2100
5.68 0.1218E+01 1.0000 1.1033 -21.2134
5.70 0.1218E+01 1.0000 1.1033 -21.2176
5.72 0.1218E+01 1.0000 1.1033 -21.2238
5.74 0.1218E+01 1.0000 1.1033 -21.2331
5.76 0.1218E+01 1.0000 1.1033 -21.2457
5.78 0.1218E+01 1.0000 1.1033 -21.2606
5.80 0.1219E+01 1.0000 1.1033 -21.2760
5.82 0.1219E+01 1.0000 1.1033 -21.2892
5.84 0.1219E+01 1.0000 1.1033 -21.2985
5.86 0.1219E+01 1.0000 1.1033 -21.3035
5.88 0.1219E+01 1.0000 1.1033 -21.3045
5.90 0.1219E+01 1.0000 1.1033 -21.3027
5.92 0.1219E+01 1.0000 1.1033 -21.2994
5.94 0.1220E+01 1.0000 1.1033 -21.2961
5.96 0.1220E+01 1.0000 1.1033 -21.2937
5.98 0.1220E+01 1.0000 1.1033 -21.2933
6.00 0.1220E+01 1.0000 1.1033 -21.2952
6.02 0.1220E+01 1.0000 1.1033 -21.2996
6.04 0.1221E+01 1.0000 1.1033 -21.3060
6.06 0.1221E+01 1.0000 1.1033 -21.3141
6.08 0.1221E+01 1.0000 1.1033 -21.3236
6.10 0.1221E+01 1.0000 1.1033 -21.3346
6.12 0.1221E+01 1.0000 1.1033 -21.3471
6.14 0.1222E+01 1.0000 1.1033 -21.3617
6.16 0.1222E+01 1.0000 1.1033 -21.3790
6.18 0.1222E+01 1.0000 1.1033 -21.3995
6.20 0.1222E+01 1.0000 1.1033 -21.4241
6.22 0.1222E+01 1.0000 1.1033 -21.4532
6.24 0.1223E+01 1.0000 1.1033 -21.4873
6.26 0.1223E+01 1.0000 1.1033 -21.5253
6.28 0.1223E+01 1.0000 1.1033 -21.5663
6.30 0.1223E+01 1.0000 1.1033 -21.6088
6.32 0.1224E+01 1.0000 1.1033 -21.6514
6.34 0.1224E+01 1.0000 1.1033 -21.6922
6.36 0.1224E+01 1.0000 1.1033 -21.7310
6.38 0.1224E+01 1.0000 1.1033 -21.7677
6.40 0.1225E+01 1.0000 1.1033 -21.8027
6.42 0.1225E+01 1.0000 1.1033 -21.8367
6.44 0.1225E+01 1.0000 1.1033 -21.8704
6.46 0.1225E+01 1.0000 1.1033 -21.9038
6.48 0.1226E+01 1.0000 1.1033 -21.9362
6.50 0.1226E+01 1.0000 1.1033 -21.9678
6.52 0.1226E+01 1.0000 1.1033 -21.9975
6.54 0.1226E+01 1.0000 1.1033 -22.0247
6.56 0.1226E+01 1.0000 1.1033 -22.0484
6.58 0.1226E+01 1.0000 1.1033 -22.0699
6.60 0.1226E+01 1.0000 1.1033 -22.0885
6.62 0.1227E+01 1.0000 1.1033 -22.1041
6.64 0.1227E+01 1.0000 1.1033 -22.1158
6.66 0.1227E+01 1.0000 1.1033 -22.1259
6.68 0.1227E+01 1.0000 1.1033 -22.1336
6.70 0.1227E+01 1.0000 1.1033 -22.1392
6.72 0.1227E+01 1.0000 1.1033 -22.1414
6.74 0.1227E+01 1.0000 1.1033 -22.1434
6.76 0.1227E+01 1.0000 1.1033 -22.1440
6.78 0.1227E+01 1.0000 1.1033 -22.1433
6.80 0.1227E+01 1.0000 1.1033 -22.1399
6.82 0.1227E+01 1.0000 1.1033 -22.1371
6.84 0.1227E+01 1.0000 1.1033 -22.1337
6.86 0.1227E+01 1.0000 1.1033 -22.1300
6.88 0.1227E+01 1.0000 1.1033 -22.1251
6.90 0.1227E+01 1.0000 1.1033 -22.1221
6.92 0.1228E+01 1.0000 1.1033 -22.1200
6.94 0.1228E+01 1.0000 1.1033 -22.1190
6.96 0.1228E+01 1.0000 1.1033 -22.1163
6.98 0.1228E+01 1.0000 1.1033 -22.1186
7.00 0.1228E+01 1.0000 1.1033 -22.1228
7.02 0.1228E+01 1.0000 1.1033 -22.1289
7.04 0.1228E+01 1.0000 1.1033 -22.1360
7.06 0.1228E+01 1.0000 1.1033 -22.1472
7.08 0.1228E+01 1.0000 1.1033 -22.1612
7.10 0.1228E+01 1.0000 1.1033 -22.1780
7.12 0.1228E+01 1.0000 1.1033 -22.1960
7.14 0.1228E+01 1.0000 1.1033 -22.2182
7.16 0.1228E+01 1.0000 1.1033 -22.2424
7.18 0.1228E+01 1.0000 1.1033 -22.2678
7.20 0.1228E+01 1.0000 1.1033 -22.2928
7.22 0.1228E+01 1.0000 1.1033 -22.3183
7.24 0.1228E+01 1.0000 1.1033 -22.3425
7.26 0.1228E+01 1.0000 1.1033 -22.3649
7.28 0.1228E+01 1.0000 1.1033 -22.3835
7.30 0.1228E+01 1.0000 1.1033 -22.4009
7.32 0.1228E+01 1.0000 1.1033 -22.4163
7.34 0.1229E+01 1.0000 1.1033 -22.4297
7.36 0.1229E+01 1.0000 1.1033 -22.4387
7.38 0.1229E+01 1.0000 1.1033 -22.4486
7.40 0.1229E+01 1.0000 1.1033 -22.4569
7.42 0.1229E+01 1.0000 1.1033 -22.4639
7.44 0.1229E+01 1.0000 1.1033 -22.4652
7.46 0.1229E+01 1.0000 1.1033 -22.4699
7.48 0.1229E+01 1.0000 1.1033 -22.4737
7.50 0.1229E+01 1.0000 1.1033 -22.4765
7.52 0.1229E+01 1.0000 1.1033 -22.4733
7.54 0.1229E+01 1.0000 1.1033 -22.4737
7.56 0.1229E+01 1.0000 1.1033 -22.4732
7.58 0.1229E+01 1.0000 1.1033 -22.4721
7.60 0.1229E+01 1.0000 1.1033 -22.4679
7.62 0.1229E+01 1.0000 1.1033 -22.4658
7.64 0.1229E+01 1.0000 1.1033 -22.4631
7.66 0.1229E+01 1.0000 1.1033 -22.4600
7.68 0.1229E+01 1.0000 1.1033 -22.4547
7.70 0.1229E+01 1.0000 1.1033 -22.4508
7.72 0.1229E+01 1.0000 1.1033 -22.4466
7.74 0.1229E+01 1.0000 1.1033 -22.4421
7.76 0.1229E+01 1.0000 1.1033 -22.4361
7.78 0.1229E+01 1.0000 1.1033 -22.4312
7.80 0.1229E+01 1.0000 1.1033 -22.4260
7.82 0.1229E+01 1.0000 1.1033 -22.4206
7.84 0.1229E+01 1.0000 1.1033 -22.4140
7.86 0.1229E+01 1.0000 1.1033 -22.4084
7.88 0.1229E+01 1.0000 1.1033 -22.4026
7.90 0.1229E+01 1.0000 1.1033 -22.3967
7.92 0.1229E+01 1.0000 1.1033 -22.3707
7.94 0.1229E+01 1.0000 1.1033 -22.3652
7.96 0.1229E+01 1.0000 1.1033 -22.3598
7.98 0.1229E+01 1.0000 1.1033 -22.3544
8.00 0.1229E+01 1.0000 1.1033 -22.3384
8.02 0.1229E+01 1.0000 1.1033 -22.3319
8.04 0.1229E+01 1.0000 1.1033 -22.3253
8.06 0.1229E+01 1.0000 1.1033 -22.3188
8.08 0.1229E+01 1.0000 1.1033 -22.3087
8.10 0.1229E+01 1.0000 1.1033 -22.3023
8.12 0.1229E+01 1.0000 1.1033 -22.2960
8.14 0.1229E+01 1.0000 1.1033 -22.2897
8.16 0.1229E+01 1.0000 1.1033 -22.2813
8.18 0.1229E+01 1.0000 1.1033 -22.2750
8.20 0.1229E+01 1.0000 1.1033 -22.2687
8.22 0.1229E+01 1.0000 1.1033 -22.2623
8.24 0.1229E+01 1.0000 1.1033 -22.2546
8.26 0.1229E+01 1.0000 1.1033 -22.2481
8.28 0.1229E+01 1.0000 1.1033 -22.2416
8.30 0.1229E+01 1.0000 1.1033 -22.2351
8.32 0.1229E+01 1.0000 1.1033 -22.2276
8.34 0.1229E+01 1.0000 1.1033 -22.2209
8.36 0.1229E+01 1.0000 1.1033 -22.2141
8.38 0.1229E+01 1.0000 1.1033 -22.2072
8.40 0.1229E+01 1.0000 1.1033 -22.1998
8.42 0.1229E+01 1.0000 1.1033 -22.1928
8.44 0.1229E+01 1.0000 1.1033 -22.1858
8.46 0.1229E+01 1.0000 1.1033 -22.1786
8.48 0.1229E+01 1.0000 1.1033 -22.1711
8.50 0.1229E+01 1.0000 1.1033 -22.1639
8.52 0.1229E+01 1.0000 1.1033 -22.1551
