# Cooling curve : CIE: [Fe/H] =  0.5
#
# log(T/K) ne   nH nt    log(Lambda_net)
#
4.00 0.1084E+00 1.0000 1.1003 -24.1266
4.02 0.1109E+00 1.0000 1.1003 -23.9625
4.04 0.1144E+00 1.0000 1.1003 -23.7857
4.06 0.1197E+00 1.0000 1.1003 -23.5985
4.08 0.1285E+00 1.0000 1.1003 -23.3816
4.10 0.1439E+00 1.0000 1.1003 -23.1692
4.12 0.1718E+00 1.0000 1.1003 -22.9387
4.14 0.2216E+00 1.0000 1.1003 -22.6918
4.16 0.3018E+00 1.0000 1.1003 -22.4297
4.18 0.4110E+00 1.0000 1.1003 -22.2151
4.20 0.5349E+00 1.0000 1.1003 -22.0540
4.22 0.6541E+00 1.0000 1.1003 -21.9512
4.24 0.7544E+00 1.0000 1.1003 -21.8804
4.26 0.8311E+00 1.0000 1.1003 -21.8664
4.28 0.8860E+00 1.0000 1.1003 -21.8783
4.30 0.9241E+00 1.0000 1.1003 -21.9063
4.32 0.9501E+00 1.0000 1.1003 -21.9235
4.34 0.9684E+00 1.0000 1.1003 -21.9649
4.36 0.9820E+00 1.0000 1.1003 -22.0067
4.38 0.9934E+00 1.0000 1.1003 -22.0464
4.40 0.1005E+01 1.0000 1.1003 -22.0622
4.42 0.1017E+01 1.0000 1.1003 -22.0935
4.44 0.1030E+01 1.0000 1.1003 -22.1195
4.46 0.1044E+01 1.0000 1.1003 -22.1412
4.48 0.1058E+01 1.0000 1.1003 -22.1422
4.50 0.1069E+01 1.0000 1.1003 -22.1600
4.52 0.1078E+01 1.0000 1.1003 -22.1756
4.54 0.1085E+01 1.0000 1.1003 -22.1884
4.56 0.1090E+01 1.0000 1.1003 -22.1834
4.58 0.1093E+01 1.0000 1.1003 -22.1898
4.60 0.1095E+01 1.0000 1.1003 -22.1916
4.62 0.1097E+01 1.0000 1.1003 -22.1883
4.64 0.1098E+01 1.0000 1.1003 -22.1701
4.66 0.1099E+01 1.0000 1.1003 -22.1570
4.68 0.1099E+01 1.0000 1.1003 -22.1379
4.70 0.1100E+01 1.0000 1.1003 -22.1126
4.72 0.1101E+01 1.0000 1.1003 -22.0749
4.74 0.1102E+01 1.0000 1.1003 -22.0380
4.76 0.1104E+01 1.0000 1.1003 -21.9953
4.78 0.1106E+01 1.0000 1.1003 -21.9478
4.80 0.1110E+01 1.0000 1.1003 -21.8921
4.82 0.1116E+01 1.0000 1.1003 -21.8408
4.84 0.1123E+01 1.0000 1.1003 -21.7917
4.86 0.1133E+01 1.0000 1.1003 -21.7482
4.88 0.1143E+01 1.0000 1.1003 -21.7081
4.90 0.1153E+01 1.0000 1.1003 -21.6826
4.92 0.1163E+01 1.0000 1.1003 -21.6664
4.94 0.1172E+01 1.0000 1.1003 -21.6580
4.96 0.1179E+01 1.0000 1.1003 -21.6509
4.98 0.1185E+01 1.0000 1.1003 -21.6526
5.00 0.1189E+01 1.0000 1.1003 -21.6576
5.02 0.1192E+01 1.0000 1.1003 -21.6657
5.04 0.1194E+01 1.0000 1.1003 -21.6732
5.06 0.1196E+01 1.0000 1.1003 -21.6875
5.08 0.1197E+01 1.0000 1.1003 -21.7029
5.10 0.1198E+01 1.0000 1.1003 -21.7175
5.12 0.1199E+01 1.0000 1.1003 -21.7262
5.14 0.1199E+01 1.0000 1.1003 -21.7350
5.16 0.1200E+01 1.0000 1.1003 -21.7402
5.18 0.1200E+01 1.0000 1.1003 -21.7423
5.20 0.1200E+01 1.0000 1.1003 -21.7404
5.22 0.1200E+01 1.0000 1.1003 -21.7403
5.24 0.1201E+01 1.0000 1.1003 -21.7405
5.26 0.1201E+01 1.0000 1.1003 -21.7413
5.28 0.1201E+01 1.0000 1.1003 -21.7408
5.30 0.1201E+01 1.0000 1.1003 -21.7418
5.32 0.1201E+01 1.0000 1.1003 -21.7419
5.34 0.1201E+01 1.0000 1.1003 -21.7418
5.36 0.1201E+01 1.0000 1.1003 -21.7416
5.38 0.1201E+01 1.0000 1.1003 -21.7461
5.40 0.1201E+01 1.0000 1.1003 -21.7572
5.42 0.1201E+01 1.0000 1.1003 -21.7782
5.44 0.1201E+01 1.0000 1.1003 -21.8104
5.46 0.1201E+01 1.0000 1.1003 -21.8558
5.48 0.1202E+01 1.0000 1.1003 -21.9096
5.50 0.1202E+01 1.0000 1.1003 -21.9655
5.52 0.1202E+01 1.0000 1.1003 -22.0170
5.54 0.1202E+01 1.0000 1.1003 -22.0617
5.56 0.1202E+01 1.0000 1.1003 -22.0967
5.58 0.1202E+01 1.0000 1.1003 -22.1225
5.60 0.1202E+01 1.0000 1.1003 -22.1393
5.62 0.1202E+01 1.0000 1.1003 -22.1514
5.64 0.1202E+01 1.0000 1.1003 -22.1596
5.66 0.1202E+01 1.0000 1.1003 -22.1653
5.68 0.1202E+01 1.0000 1.1003 -22.1687
5.70 0.1202E+01 1.0000 1.1003 -22.1741
5.72 0.1202E+01 1.0000 1.1003 -22.1812
5.74 0.1202E+01 1.0000 1.1003 -22.1909
5.76 0.1202E+01 1.0000 1.1003 -22.2025
5.78 0.1202E+01 1.0000 1.1003 -22.2172
5.80 0.1202E+01 1.0000 1.1003 -22.2321
5.82 0.1202E+01 1.0000 1.1003 -22.2451
5.84 0.1202E+01 1.0000 1.1003 -22.2541
5.86 0.1202E+01 1.0000 1.1003 -22.2594
5.88 0.1202E+01 1.0000 1.1003 -22.2612
5.90 0.1202E+01 1.0000 1.1003 -22.2604
5.92 0.1202E+01 1.0000 1.1003 -22.2580
5.94 0.1202E+01 1.0000 1.1003 -22.2556
5.96 0.1202E+01 1.0000 1.1003 -22.2541
5.98 0.1202E+01 1.0000 1.1003 -22.2543
6.00 0.1202E+01 1.0000 1.1003 -22.2562
6.02 0.1202E+01 1.0000 1.1003 -22.2604
6.04 0.1202E+01 1.0000 1.1003 -22.2665
6.06 0.1202E+01 1.0000 1.1003 -22.2739
6.08 0.1202E+01 1.0000 1.1003 -22.2825
6.10 0.1202E+01 1.0000 1.1003 -22.2924
6.12 0.1202E+01 1.0000 1.1003 -22.3036
6.14 0.1202E+01 1.0000 1.1003 -22.3166
6.16 0.1202E+01 1.0000 1.1003 -22.3316
6.18 0.1202E+01 1.0000 1.1003 -22.3495
6.20 0.1202E+01 1.0000 1.1003 -22.3707
6.22 0.1202E+01 1.0000 1.1003 -22.3956
6.24 0.1202E+01 1.0000 1.1003 -22.4242
6.26 0.1202E+01 1.0000 1.1003 -22.4557
6.28 0.1202E+01 1.0000 1.1003 -22.4891
6.30 0.1202E+01 1.0000 1.1003 -22.5231
6.32 0.1202E+01 1.0000 1.1003 -22.5561
6.34 0.1202E+01 1.0000 1.1003 -22.5873
6.36 0.1202E+01 1.0000 1.1003 -22.6162
6.38 0.1202E+01 1.0000 1.1003 -22.6429
6.40 0.1202E+01 1.0000 1.1003 -22.6673
6.42 0.1202E+01 1.0000 1.1003 -22.6906
6.44 0.1203E+01 1.0000 1.1003 -22.7128
6.46 0.1203E+01 1.0000 1.1003 -22.7341
6.48 0.1203E+01 1.0000 1.1003 -22.7537
6.50 0.1203E+01 1.0000 1.1003 -22.7724
6.52 0.1203E+01 1.0000 1.1003 -22.7887
6.54 0.1203E+01 1.0000 1.1003 -22.8028
6.56 0.1203E+01 1.0000 1.1003 -22.8140
6.58 0.1203E+01 1.0000 1.1003 -22.8238
6.60 0.1203E+01 1.0000 1.1003 -22.8315
6.62 0.1203E+01 1.0000 1.1003 -22.8372
6.64 0.1203E+01 1.0000 1.1003 -22.8404
6.66 0.1203E+01 1.0000 1.1003 -22.8427
6.68 0.1203E+01 1.0000 1.1003 -22.8435
6.70 0.1203E+01 1.0000 1.1003 -22.8431
6.72 0.1203E+01 1.0000 1.1003 -22.8408
6.74 0.1203E+01 1.0000 1.1003 -22.8385
6.76 0.1203E+01 1.0000 1.1003 -22.8354
6.78 0.1203E+01 1.0000 1.1003 -22.8316
6.80 0.1203E+01 1.0000 1.1003 -22.8263
6.82 0.1203E+01 1.0000 1.1003 -22.8214
6.84 0.1203E+01 1.0000 1.1003 -22.8162
6.86 0.1203E+01 1.0000 1.1003 -22.8109
6.88 0.1203E+01 1.0000 1.1003 -22.8048
6.90 0.1203E+01 1.0000 1.1003 -22.7997
6.92 0.1203E+01 1.0000 1.1003 -22.7950
6.94 0.1203E+01 1.0000 1.1003 -22.7907
6.96 0.1203E+01 1.0000 1.1003 -22.7854
6.98 0.1203E+01 1.0000 1.1003 -22.7826
7.00 0.1203E+01 1.0000 1.1003 -22.7805
7.02 0.1203E+01 1.0000 1.1003 -22.7781
7.04 0.1203E+01 1.0000 1.1003 -22.7758
7.06 0.1203E+01 1.0000 1.1003 -22.7752
7.08 0.1203E+01 1.0000 1.1003 -22.7754
7.10 0.1203E+01 1.0000 1.1003 -22.7764
7.12 0.1203E+01 1.0000 1.1003 -22.7772
7.14 0.1203E+01 1.0000 1.1003 -22.7794
7.16 0.1203E+01 1.0000 1.1003 -22.7817
7.18 0.1203E+01 1.0000 1.1003 -22.7839
7.20 0.1203E+01 1.0000 1.1003 -22.7852
7.22 0.1203E+01 1.0000 1.1003 -22.7865
7.24 0.1203E+01 1.0000 1.1003 -22.7870
7.26 0.1203E+01 1.0000 1.1003 -22.7866
7.28 0.1203E+01 1.0000 1.1003 -22.7848
7.30 0.1203E+01 1.0000 1.1003 -22.7828
7.32 0.1203E+01 1.0000 1.1003 -22.7802
7.34 0.1203E+01 1.0000 1.1003 -22.7769
7.36 0.1203E+01 1.0000 1.1003 -22.7724
7.38 0.1203E+01 1.0000 1.1003 -22.7681
7.40 0.1203E+01 1.0000 1.1003 -22.7635
7.42 0.1203E+01 1.0000 1.1003 -22.7585
7.44 0.1203E+01 1.0000 1.1003 -22.7521
7.46 0.1203E+01 1.0000 1.1003 -22.7465
7.48 0.1203E+01 1.0000 1.1003 -22.7408
7.50 0.1203E+01 1.0000 1.1003 -22.7348
7.52 0.1203E+01 1.0000 1.1003 -22.7261
7.54 0.1203E+01 1.0000 1.1003 -22.7183
7.56 0.1203E+01 1.0000 1.1003 -22.7103
7.58 0.1203E+01 1.0000 1.1003 -22.7021
7.60 0.1203E+01 1.0000 1.1003 -22.6933
7.62 0.1203E+01 1.0000 1.1003 -22.6850
7.64 0.1203E+01 1.0000 1.1003 -22.6766
7.66 0.1203E+01 1.0000 1.1003 -22.6681
7.68 0.1203E+01 1.0000 1.1003 -22.6592
7.70 0.1203E+01 1.0000 1.1003 -22.6507
7.72 0.1203E+01 1.0000 1.1003 -22.6421
7.74 0.1203E+01 1.0000 1.1003 -22.6335
7.76 0.1203E+01 1.0000 1.1003 -22.6246
7.78 0.1203E+01 1.0000 1.1003 -22.6159
7.80 0.1203E+01 1.0000 1.1003 -22.6073
7.82 0.1203E+01 1.0000 1.1003 -22.5987
7.84 0.1203E+01 1.0000 1.1003 -22.5899
7.86 0.1203E+01 1.0000 1.1003 -22.5813
7.88 0.1203E+01 1.0000 1.1003 -22.5727
7.90 0.1203E+01 1.0000 1.1003 -22.5641
7.92 0.1203E+01 1.0000 1.1003 -22.5527
7.94 0.1203E+01 1.0000 1.1003 -22.5443
7.96 0.1203E+01 1.0000 1.1003 -22.5359
7.98 0.1203E+01 1.0000 1.1003 -22.5276
8.00 0.1203E+01 1.0000 1.1003 -22.5178
8.02 0.1203E+01 1.0000 1.1003 -22.5080
8.04 0.1203E+01 1.0000 1.1003 -22.4983
8.06 0.1203E+01 1.0000 1.1003 -22.4886
8.08 0.1203E+01 1.0000 1.1003 -22.4783
8.10 0.1203E+01 1.0000 1.1003 -22.4687
8.12 0.1203E+01 1.0000 1.1003 -22.4591
8.14 0.1203E+01 1.0000 1.1003 -22.4496
8.16 0.1203E+01 1.0000 1.1003 -22.4397
8.18 0.1203E+01 1.0000 1.1003 -22.4302
8.20 0.1203E+01 1.0000 1.1003 -22.4208
8.22 0.1203E+01 1.0000 1.1003 -22.4113
8.24 0.1203E+01 1.0000 1.1003 -22.4018
8.26 0.1203E+01 1.0000 1.1003 -22.3924
8.28 0.1203E+01 1.0000 1.1003 -22.3831
8.30 0.1203E+01 1.0000 1.1003 -22.3737
8.32 0.1203E+01 1.0000 1.1003 -22.3644
8.34 0.1203E+01 1.0000 1.1003 -22.3551
8.36 0.1203E+01 1.0000 1.1003 -22.3459
8.38 0.1203E+01 1.0000 1.1003 -22.3367
8.40 0.1203E+01 1.0000 1.1003 -22.3275
8.42 0.1203E+01 1.0000 1.1003 -22.3184
8.44 0.1203E+01 1.0000 1.1003 -22.3093
8.46 0.1203E+01 1.0000 1.1003 -22.3003
8.48 0.1203E+01 1.0000 1.1003 -22.2912
8.50 0.1203E+01 1.0000 1.1003 -22.2822
8.52 0.1203E+01 1.0000 1.1003 -22.2717
