# Cooling curve : CIE: [Fe/H] =  0.5
#
# log(T/K) ne   nH nt    log(Lambda_net)
#
4.00 0.1076E+00 1.0000 1.0825 -24.3526
4.02 0.1102E+00 1.0000 1.0825 -24.1276
4.04 0.1136E+00 1.0000 1.0825 -23.9059
4.06 0.1189E+00 1.0000 1.0825 -23.6866
4.08 0.1277E+00 1.0000 1.0825 -23.4437
4.10 0.1431E+00 1.0000 1.0825 -23.2153
4.12 0.1711E+00 1.0000 1.0825 -22.9738
4.14 0.2210E+00 1.0000 1.0825 -22.7199
4.16 0.3013E+00 1.0000 1.0825 -22.4517
4.18 0.4106E+00 1.0000 1.0825 -22.2347
4.20 0.5345E+00 1.0000 1.0825 -22.0728
4.22 0.6536E+00 1.0000 1.0825 -21.9701
4.24 0.7539E+00 1.0000 1.0825 -21.8995
4.26 0.8306E+00 1.0000 1.0825 -21.8871
4.28 0.8855E+00 1.0000 1.0825 -21.9014
4.30 0.9234E+00 1.0000 1.0825 -21.9328
4.32 0.9493E+00 1.0000 1.0825 -21.9533
4.34 0.9673E+00 1.0000 1.0825 -22.0005
4.36 0.9805E+00 1.0000 1.0825 -22.0499
4.38 0.9913E+00 1.0000 1.0825 -22.0991
4.40 0.1001E+01 1.0000 1.0825 -22.1235
4.42 0.1012E+01 1.0000 1.0825 -22.1680
4.44 0.1024E+01 1.0000 1.0825 -22.2094
4.46 0.1035E+01 1.0000 1.0825 -22.2487
4.48 0.1047E+01 1.0000 1.0825 -22.2641
4.50 0.1056E+01 1.0000 1.0825 -22.3036
4.52 0.1064E+01 1.0000 1.0825 -22.3438
4.54 0.1070E+01 1.0000 1.0825 -22.3843
4.56 0.1074E+01 1.0000 1.0825 -22.4013
4.58 0.1076E+01 1.0000 1.0825 -22.4407
4.60 0.1078E+01 1.0000 1.0825 -22.4777
4.62 0.1079E+01 1.0000 1.0825 -22.5112
4.64 0.1080E+01 1.0000 1.0825 -22.5188
4.66 0.1081E+01 1.0000 1.0825 -22.5409
4.68 0.1082E+01 1.0000 1.0825 -22.5532
4.70 0.1082E+01 1.0000 1.0825 -22.5529
4.72 0.1083E+01 1.0000 1.0825 -22.5208
4.74 0.1084E+01 1.0000 1.0825 -22.4911
4.76 0.1085E+01 1.0000 1.0825 -22.4457
4.78 0.1087E+01 1.0000 1.0825 -22.3874
4.80 0.1091E+01 1.0000 1.0825 -22.3093
4.82 0.1095E+01 1.0000 1.0825 -22.2422
4.84 0.1101E+01 1.0000 1.0825 -22.1793
4.86 0.1109E+01 1.0000 1.0825 -22.1265
4.88 0.1117E+01 1.0000 1.0825 -22.0782
4.90 0.1126E+01 1.0000 1.0825 -22.0563
4.92 0.1134E+01 1.0000 1.0825 -22.0503
4.94 0.1141E+01 1.0000 1.0825 -22.0582
4.96 0.1147E+01 1.0000 1.0825 -22.0670
4.98 0.1152E+01 1.0000 1.0825 -22.0937
5.00 0.1155E+01 1.0000 1.0825 -22.1255
5.02 0.1158E+01 1.0000 1.0825 -22.1602
5.04 0.1160E+01 1.0000 1.0825 -22.1861
5.06 0.1161E+01 1.0000 1.0825 -22.2229
5.08 0.1162E+01 1.0000 1.0825 -22.2589
5.10 0.1163E+01 1.0000 1.0825 -22.2937
5.12 0.1163E+01 1.0000 1.0825 -22.3167
5.14 0.1164E+01 1.0000 1.0825 -22.3471
5.16 0.1164E+01 1.0000 1.0825 -22.3754
5.18 0.1164E+01 1.0000 1.0825 -22.4011
5.20 0.1164E+01 1.0000 1.0825 -22.4154
5.22 0.1164E+01 1.0000 1.0825 -22.4368
5.24 0.1165E+01 1.0000 1.0825 -22.4560
5.26 0.1165E+01 1.0000 1.0825 -22.4733
5.28 0.1165E+01 1.0000 1.0825 -22.4812
5.30 0.1165E+01 1.0000 1.0825 -22.4956
5.32 0.1165E+01 1.0000 1.0825 -22.5085
5.34 0.1165E+01 1.0000 1.0825 -22.5206
5.36 0.1165E+01 1.0000 1.0825 -22.5265
5.38 0.1165E+01 1.0000 1.0825 -22.5408
5.40 0.1165E+01 1.0000 1.0825 -22.5588
5.42 0.1165E+01 1.0000 1.0825 -22.5827
5.44 0.1165E+01 1.0000 1.0825 -22.6082
5.46 0.1165E+01 1.0000 1.0825 -22.6468
5.48 0.1165E+01 1.0000 1.0825 -22.6900
5.50 0.1165E+01 1.0000 1.0825 -22.7341
5.52 0.1165E+01 1.0000 1.0825 -22.7697
5.54 0.1165E+01 1.0000 1.0825 -22.8060
5.56 0.1165E+01 1.0000 1.0825 -22.8366
5.58 0.1165E+01 1.0000 1.0825 -22.8620
5.60 0.1165E+01 1.0000 1.0825 -22.8778
5.62 0.1165E+01 1.0000 1.0825 -22.8956
5.64 0.1165E+01 1.0000 1.0825 -22.9109
5.66 0.1165E+01 1.0000 1.0825 -22.9245
5.68 0.1165E+01 1.0000 1.0825 -22.9307
5.70 0.1165E+01 1.0000 1.0825 -22.9439
5.72 0.1165E+01 1.0000 1.0825 -22.9579
5.74 0.1165E+01 1.0000 1.0825 -22.9732
5.76 0.1165E+01 1.0000 1.0825 -22.9845
5.78 0.1165E+01 1.0000 1.0825 -23.0030
5.80 0.1165E+01 1.0000 1.0825 -23.0216
5.82 0.1165E+01 1.0000 1.0825 -23.0391
5.84 0.1165E+01 1.0000 1.0825 -23.0524
5.86 0.1165E+01 1.0000 1.0825 -23.0653
5.88 0.1165E+01 1.0000 1.0825 -23.0756
5.90 0.1165E+01 1.0000 1.0825 -23.0839
5.92 0.1165E+01 1.0000 1.0825 -23.0890
5.94 0.1165E+01 1.0000 1.0825 -23.0950
5.96 0.1165E+01 1.0000 1.0825 -23.1006
5.98 0.1165E+01 1.0000 1.0825 -23.1062
6.00 0.1165E+01 1.0000 1.0825 -23.1105
6.02 0.1165E+01 1.0000 1.0825 -23.1159
6.04 0.1165E+01 1.0000 1.0825 -23.1212
6.06 0.1165E+01 1.0000 1.0825 -23.1262
6.08 0.1165E+01 1.0000 1.0825 -23.1296
6.10 0.1165E+01 1.0000 1.0825 -23.1338
6.12 0.1165E+01 1.0000 1.0825 -23.1375
6.14 0.1165E+01 1.0000 1.0825 -23.1410
6.16 0.1165E+01 1.0000 1.0825 -23.1435
6.18 0.1165E+01 1.0000 1.0825 -23.1471
6.20 0.1165E+01 1.0000 1.0825 -23.1512
6.22 0.1165E+01 1.0000 1.0825 -23.1556
6.24 0.1165E+01 1.0000 1.0825 -23.1595
6.26 0.1165E+01 1.0000 1.0825 -23.1643
6.28 0.1165E+01 1.0000 1.0825 -23.1689
6.30 0.1165E+01 1.0000 1.0825 -23.1728
6.32 0.1165E+01 1.0000 1.0825 -23.1752
6.34 0.1165E+01 1.0000 1.0825 -23.1773
6.36 0.1165E+01 1.0000 1.0825 -23.1786
6.38 0.1165E+01 1.0000 1.0825 -23.1790
6.40 0.1165E+01 1.0000 1.0825 -23.1782
6.42 0.1165E+01 1.0000 1.0825 -23.1775
6.44 0.1165E+01 1.0000 1.0825 -23.1764
6.46 0.1165E+01 1.0000 1.0825 -23.1750
6.48 0.1165E+01 1.0000 1.0825 -23.1728
6.50 0.1165E+01 1.0000 1.0825 -23.1708
6.52 0.1165E+01 1.0000 1.0825 -23.1670
6.54 0.1165E+01 1.0000 1.0825 -23.1628
6.56 0.1165E+01 1.0000 1.0825 -23.1579
6.58 0.1165E+01 1.0000 1.0825 -23.1532
6.60 0.1165E+01 1.0000 1.0825 -23.1481
6.62 0.1165E+01 1.0000 1.0825 -23.1428
6.64 0.1165E+01 1.0000 1.0825 -23.1369
6.66 0.1165E+01 1.0000 1.0825 -23.1312
6.68 0.1165E+01 1.0000 1.0825 -23.1253
6.70 0.1165E+01 1.0000 1.0825 -23.1192
6.72 0.1165E+01 1.0000 1.0825 -23.1128
6.74 0.1165E+01 1.0000 1.0825 -23.1065
6.76 0.1165E+01 1.0000 1.0825 -23.1000
6.78 0.1165E+01 1.0000 1.0825 -23.0935
6.80 0.1165E+01 1.0000 1.0825 -23.0867
6.82 0.1165E+01 1.0000 1.0825 -23.0800
6.84 0.1165E+01 1.0000 1.0825 -23.0733
6.86 0.1165E+01 1.0000 1.0825 -23.0664
6.88 0.1165E+01 1.0000 1.0825 -23.0594
6.90 0.1165E+01 1.0000 1.0825 -23.0525
6.92 0.1165E+01 1.0000 1.0825 -23.0457
6.94 0.1165E+01 1.0000 1.0825 -23.0388
6.96 0.1165E+01 1.0000 1.0825 -23.0316
6.98 0.1165E+01 1.0000 1.0825 -23.0248
7.00 0.1165E+01 1.0000 1.0825 -23.0181
7.02 0.1165E+01 1.0000 1.0825 -23.0096
7.04 0.1165E+01 1.0000 1.0825 -23.0010
7.06 0.1165E+01 1.0000 1.0825 -22.9926
7.08 0.1165E+01 1.0000 1.0825 -22.9842
7.10 0.1165E+01 1.0000 1.0825 -22.9759
7.12 0.1165E+01 1.0000 1.0825 -22.9674
7.14 0.1165E+01 1.0000 1.0825 -22.9591
7.16 0.1165E+01 1.0000 1.0825 -22.9509
7.18 0.1165E+01 1.0000 1.0825 -22.9426
7.20 0.1165E+01 1.0000 1.0825 -22.9342
7.22 0.1165E+01 1.0000 1.0825 -22.9260
7.24 0.1165E+01 1.0000 1.0825 -22.9177
7.26 0.1165E+01 1.0000 1.0825 -22.9094
7.28 0.1165E+01 1.0000 1.0825 -22.9010
7.30 0.1165E+01 1.0000 1.0825 -22.8927
7.32 0.1165E+01 1.0000 1.0825 -22.8843
7.34 0.1165E+01 1.0000 1.0825 -22.8760
7.36 0.1165E+01 1.0000 1.0825 -22.8676
7.38 0.1165E+01 1.0000 1.0825 -22.8593
7.40 0.1165E+01 1.0000 1.0825 -22.8510
7.42 0.1165E+01 1.0000 1.0825 -22.8428
7.44 0.1165E+01 1.0000 1.0825 -22.8344
7.46 0.1165E+01 1.0000 1.0825 -22.8262
7.48 0.1165E+01 1.0000 1.0825 -22.8181
7.50 0.1165E+01 1.0000 1.0825 -22.8099
7.52 0.1165E+01 1.0000 1.0825 -22.8001
7.54 0.1165E+01 1.0000 1.0825 -22.7903
7.56 0.1165E+01 1.0000 1.0825 -22.7805
7.58 0.1165E+01 1.0000 1.0825 -22.7708
7.60 0.1165E+01 1.0000 1.0825 -22.7610
7.62 0.1165E+01 1.0000 1.0825 -22.7513
7.64 0.1165E+01 1.0000 1.0825 -22.7417
7.66 0.1165E+01 1.0000 1.0825 -22.7321
7.68 0.1165E+01 1.0000 1.0825 -22.7225
7.70 0.1165E+01 1.0000 1.0825 -22.7129
7.72 0.1165E+01 1.0000 1.0825 -22.7034
7.74 0.1165E+01 1.0000 1.0825 -22.6940
7.76 0.1165E+01 1.0000 1.0825 -22.6846
7.78 0.1165E+01 1.0000 1.0825 -22.6752
7.80 0.1165E+01 1.0000 1.0825 -22.6659
7.82 0.1165E+01 1.0000 1.0825 -22.6567
7.84 0.1165E+01 1.0000 1.0825 -22.6474
7.86 0.1165E+01 1.0000 1.0825 -22.6383
7.88 0.1165E+01 1.0000 1.0825 -22.6292
7.90 0.1165E+01 1.0000 1.0825 -22.6202
7.92 0.1165E+01 1.0000 1.0825 -22.6111
7.94 0.1165E+01 1.0000 1.0825 -22.6021
7.96 0.1165E+01 1.0000 1.0825 -22.5933
7.98 0.1165E+01 1.0000 1.0825 -22.5844
8.00 0.1165E+01 1.0000 1.0825 -22.5756
8.02 0.1165E+01 1.0000 1.0825 -22.5653
8.04 0.1165E+01 1.0000 1.0825 -22.5550
8.06 0.1165E+01 1.0000 1.0825 -22.5447
8.08 0.1165E+01 1.0000 1.0825 -22.5345
8.10 0.1165E+01 1.0000 1.0825 -22.5243
8.12 0.1165E+01 1.0000 1.0825 -22.5142
8.14 0.1165E+01 1.0000 1.0825 -22.5041
8.16 0.1165E+01 1.0000 1.0825 -22.4940
8.18 0.1165E+01 1.0000 1.0825 -22.4840
8.20 0.1165E+01 1.0000 1.0825 -22.4740
8.22 0.1165E+01 1.0000 1.0825 -22.4641
8.24 0.1165E+01 1.0000 1.0825 -22.4542
8.26 0.1165E+01 1.0000 1.0825 -22.4444
8.28 0.1165E+01 1.0000 1.0825 -22.4346
8.30 0.1165E+01 1.0000 1.0825 -22.4249
8.32 0.1165E+01 1.0000 1.0825 -22.4152
8.34 0.1165E+01 1.0000 1.0825 -22.4056
8.36 0.1165E+01 1.0000 1.0825 -22.3960
8.38 0.1165E+01 1.0000 1.0825 -22.3865
8.40 0.1165E+01 1.0000 1.0825 -22.3770
8.42 0.1165E+01 1.0000 1.0825 -22.3675
8.44 0.1165E+01 1.0000 1.0825 -22.3582
8.46 0.1165E+01 1.0000 1.0825 -22.3488
8.48 0.1165E+01 1.0000 1.0825 -22.3395
8.50 0.1165E+01 1.0000 1.0825 -22.3303
8.52 0.1165E+01 1.0000 1.0825 -22.3195
