# Cooling curve : CIE: [Fe/H] =  0.5
#
# log(T/K) ne   nH nt    log(Lambda_net)
#
4.00 0.1076E+00 1.0000 1.0825 -24.3204
4.02 0.1101E+00 1.0000 1.0825 -24.1051
4.04 0.1136E+00 1.0000 1.0825 -23.8901
4.06 0.1189E+00 1.0000 1.0825 -23.6758
4.08 0.1277E+00 1.0000 1.0825 -23.4364
4.10 0.1431E+00 1.0000 1.0825 -23.2100
4.12 0.1711E+00 1.0000 1.0825 -22.9698
4.14 0.2210E+00 1.0000 1.0825 -22.7167
4.16 0.3013E+00 1.0000 1.0825 -22.4491
4.18 0.4106E+00 1.0000 1.0825 -22.2323
4.20 0.5345E+00 1.0000 1.0825 -22.0704
4.22 0.6536E+00 1.0000 1.0825 -21.9676
4.24 0.7540E+00 1.0000 1.0825 -21.8968
4.26 0.8306E+00 1.0000 1.0825 -21.8842
4.28 0.8855E+00 1.0000 1.0825 -21.8980
4.30 0.9234E+00 1.0000 1.0825 -21.9288
4.32 0.9494E+00 1.0000 1.0825 -21.9487
4.34 0.9674E+00 1.0000 1.0825 -21.9950
4.36 0.9806E+00 1.0000 1.0825 -22.0432
4.38 0.9913E+00 1.0000 1.0825 -22.0908
4.40 0.1001E+01 1.0000 1.0825 -22.1140
4.42 0.1012E+01 1.0000 1.0825 -22.1566
4.44 0.1024E+01 1.0000 1.0825 -22.1957
4.46 0.1036E+01 1.0000 1.0825 -22.2322
4.48 0.1047E+01 1.0000 1.0825 -22.2455
4.50 0.1057E+01 1.0000 1.0825 -22.2814
4.52 0.1064E+01 1.0000 1.0825 -22.3173
4.54 0.1070E+01 1.0000 1.0825 -22.3527
4.56 0.1074E+01 1.0000 1.0825 -22.3656
4.58 0.1076E+01 1.0000 1.0825 -22.3984
4.60 0.1078E+01 1.0000 1.0825 -22.4281
4.62 0.1080E+01 1.0000 1.0825 -22.4536
4.64 0.1080E+01 1.0000 1.0825 -22.4556
4.66 0.1081E+01 1.0000 1.0825 -22.4695
4.68 0.1082E+01 1.0000 1.0825 -22.4745
4.70 0.1082E+01 1.0000 1.0825 -22.4685
4.72 0.1083E+01 1.0000 1.0825 -22.4360
4.74 0.1084E+01 1.0000 1.0825 -22.4057
4.76 0.1085E+01 1.0000 1.0825 -22.3625
4.78 0.1087E+01 1.0000 1.0825 -22.3084
4.80 0.1091E+01 1.0000 1.0825 -22.2376
4.82 0.1095E+01 1.0000 1.0825 -22.1756
4.84 0.1101E+01 1.0000 1.0825 -22.1170
4.86 0.1109E+01 1.0000 1.0825 -22.0672
4.88 0.1117E+01 1.0000 1.0825 -22.0214
4.90 0.1126E+01 1.0000 1.0825 -21.9990
4.92 0.1134E+01 1.0000 1.0825 -21.9907
4.94 0.1141E+01 1.0000 1.0825 -21.9944
4.96 0.1147E+01 1.0000 1.0825 -21.9987
4.98 0.1152E+01 1.0000 1.0825 -22.0177
5.00 0.1155E+01 1.0000 1.0825 -22.0402
5.02 0.1158E+01 1.0000 1.0825 -22.0644
5.04 0.1160E+01 1.0000 1.0825 -22.0810
5.06 0.1161E+01 1.0000 1.0825 -22.1055
5.08 0.1162E+01 1.0000 1.0825 -22.1285
5.10 0.1163E+01 1.0000 1.0825 -22.1493
5.12 0.1163E+01 1.0000 1.0825 -22.1600
5.14 0.1164E+01 1.0000 1.0825 -22.1754
5.16 0.1164E+01 1.0000 1.0825 -22.1875
5.18 0.1164E+01 1.0000 1.0825 -22.1966
5.20 0.1164E+01 1.0000 1.0825 -22.1978
5.22 0.1165E+01 1.0000 1.0825 -22.2029
5.24 0.1165E+01 1.0000 1.0825 -22.2064
5.26 0.1165E+01 1.0000 1.0825 -22.2087
5.28 0.1165E+01 1.0000 1.0825 -22.2059
5.30 0.1165E+01 1.0000 1.0825 -22.2068
5.32 0.1165E+01 1.0000 1.0825 -22.2072
5.34 0.1165E+01 1.0000 1.0825 -22.2078
5.36 0.1165E+01 1.0000 1.0825 -22.2070
5.38 0.1165E+01 1.0000 1.0825 -22.2133
5.40 0.1165E+01 1.0000 1.0825 -22.2259
5.42 0.1165E+01 1.0000 1.0825 -22.2479
5.44 0.1165E+01 1.0000 1.0825 -22.2786
5.46 0.1165E+01 1.0000 1.0825 -22.3233
5.48 0.1165E+01 1.0000 1.0825 -22.3760
5.50 0.1165E+01 1.0000 1.0825 -22.4313
5.52 0.1165E+01 1.0000 1.0825 -22.4808
5.54 0.1165E+01 1.0000 1.0825 -22.5264
5.56 0.1165E+01 1.0000 1.0825 -22.5638
5.58 0.1165E+01 1.0000 1.0825 -22.5934
5.60 0.1165E+01 1.0000 1.0825 -22.6135
5.62 0.1165E+01 1.0000 1.0825 -22.6313
5.64 0.1165E+01 1.0000 1.0825 -22.6456
5.66 0.1165E+01 1.0000 1.0825 -22.6579
5.68 0.1165E+01 1.0000 1.0825 -22.6659
5.70 0.1165E+01 1.0000 1.0825 -22.6783
5.72 0.1165E+01 1.0000 1.0825 -22.6929
5.74 0.1165E+01 1.0000 1.0825 -22.7104
5.76 0.1165E+01 1.0000 1.0825 -22.7285
5.78 0.1165E+01 1.0000 1.0825 -22.7526
5.80 0.1165E+01 1.0000 1.0825 -22.7780
5.82 0.1165E+01 1.0000 1.0825 -22.8022
5.84 0.1165E+01 1.0000 1.0825 -22.8221
5.86 0.1165E+01 1.0000 1.0825 -22.8392
5.88 0.1165E+01 1.0000 1.0825 -22.8524
5.90 0.1165E+01 1.0000 1.0825 -22.8623
5.92 0.1165E+01 1.0000 1.0825 -22.8689
5.94 0.1165E+01 1.0000 1.0825 -22.8755
5.96 0.1165E+01 1.0000 1.0825 -22.8819
5.98 0.1165E+01 1.0000 1.0825 -22.8889
6.00 0.1165E+01 1.0000 1.0825 -22.8960
6.02 0.1165E+01 1.0000 1.0825 -22.9045
6.04 0.1165E+01 1.0000 1.0825 -22.9134
6.06 0.1165E+01 1.0000 1.0825 -22.9223
6.08 0.1165E+01 1.0000 1.0825 -22.9301
6.10 0.1165E+01 1.0000 1.0825 -22.9383
6.12 0.1165E+01 1.0000 1.0825 -22.9461
6.14 0.1165E+01 1.0000 1.0825 -22.9540
6.16 0.1165E+01 1.0000 1.0825 -22.9617
6.18 0.1165E+01 1.0000 1.0825 -22.9709
6.20 0.1165E+01 1.0000 1.0825 -22.9814
6.22 0.1165E+01 1.0000 1.0825 -22.9934
6.24 0.1165E+01 1.0000 1.0825 -23.0060
6.26 0.1165E+01 1.0000 1.0825 -23.0199
6.28 0.1165E+01 1.0000 1.0825 -23.0337
6.30 0.1165E+01 1.0000 1.0825 -23.0466
6.32 0.1165E+01 1.0000 1.0825 -23.0575
6.34 0.1165E+01 1.0000 1.0825 -23.0673
6.36 0.1165E+01 1.0000 1.0825 -23.0753
6.38 0.1165E+01 1.0000 1.0825 -23.0819
6.40 0.1165E+01 1.0000 1.0825 -23.0866
6.42 0.1165E+01 1.0000 1.0825 -23.0910
6.44 0.1165E+01 1.0000 1.0825 -23.0948
6.46 0.1165E+01 1.0000 1.0825 -23.0981
6.48 0.1165E+01 1.0000 1.0825 -23.1002
6.50 0.1165E+01 1.0000 1.0825 -23.1025
6.52 0.1166E+01 1.0000 1.0825 -23.1029
6.54 0.1166E+01 1.0000 1.0825 -23.1026
6.56 0.1166E+01 1.0000 1.0825 -23.1010
6.58 0.1166E+01 1.0000 1.0825 -23.0995
6.60 0.1166E+01 1.0000 1.0825 -23.0974
6.62 0.1166E+01 1.0000 1.0825 -23.0947
6.64 0.1166E+01 1.0000 1.0825 -23.0910
6.66 0.1166E+01 1.0000 1.0825 -23.0875
6.68 0.1166E+01 1.0000 1.0825 -23.0835
6.70 0.1166E+01 1.0000 1.0825 -23.0792
6.72 0.1166E+01 1.0000 1.0825 -23.0742
6.74 0.1166E+01 1.0000 1.0825 -23.0694
6.76 0.1166E+01 1.0000 1.0825 -23.0644
6.78 0.1166E+01 1.0000 1.0825 -23.0591
6.80 0.1166E+01 1.0000 1.0825 -23.0532
6.82 0.1166E+01 1.0000 1.0825 -23.0476
6.84 0.1166E+01 1.0000 1.0825 -23.0417
6.86 0.1166E+01 1.0000 1.0825 -23.0357
6.88 0.1166E+01 1.0000 1.0825 -23.0292
6.90 0.1166E+01 1.0000 1.0825 -23.0231
6.92 0.1166E+01 1.0000 1.0825 -23.0170
6.94 0.1166E+01 1.0000 1.0825 -23.0109
6.96 0.1166E+01 1.0000 1.0825 -23.0039
6.98 0.1166E+01 1.0000 1.0825 -22.9980
7.00 0.1166E+01 1.0000 1.0825 -22.9921
7.02 0.1166E+01 1.0000 1.0825 -22.9847
7.04 0.1166E+01 1.0000 1.0825 -22.9769
7.06 0.1166E+01 1.0000 1.0825 -22.9696
7.08 0.1166E+01 1.0000 1.0825 -22.9624
7.10 0.1166E+01 1.0000 1.0825 -22.9554
7.12 0.1166E+01 1.0000 1.0825 -22.9479
7.14 0.1166E+01 1.0000 1.0825 -22.9409
7.16 0.1166E+01 1.0000 1.0825 -22.9339
7.18 0.1166E+01 1.0000 1.0825 -22.9269
7.20 0.1166E+01 1.0000 1.0825 -22.9196
7.22 0.1166E+01 1.0000 1.0825 -22.9125
7.24 0.1166E+01 1.0000 1.0825 -22.9052
7.26 0.1166E+01 1.0000 1.0825 -22.8979
7.28 0.1166E+01 1.0000 1.0825 -22.8902
7.30 0.1166E+01 1.0000 1.0825 -22.8827
7.32 0.1166E+01 1.0000 1.0825 -22.8751
7.34 0.1166E+01 1.0000 1.0825 -22.8674
7.36 0.1166E+01 1.0000 1.0825 -22.8594
7.38 0.1166E+01 1.0000 1.0825 -22.8516
7.40 0.1166E+01 1.0000 1.0825 -22.8438
7.42 0.1166E+01 1.0000 1.0825 -22.8360
7.44 0.1166E+01 1.0000 1.0825 -22.8278
7.46 0.1166E+01 1.0000 1.0825 -22.8199
7.48 0.1166E+01 1.0000 1.0825 -22.8121
7.50 0.1166E+01 1.0000 1.0825 -22.8043
7.52 0.1166E+01 1.0000 1.0825 -22.7945
7.54 0.1166E+01 1.0000 1.0825 -22.7850
7.56 0.1166E+01 1.0000 1.0825 -22.7755
7.58 0.1166E+01 1.0000 1.0825 -22.7660
7.60 0.1166E+01 1.0000 1.0825 -22.7563
7.62 0.1166E+01 1.0000 1.0825 -22.7468
7.64 0.1166E+01 1.0000 1.0825 -22.7374
7.66 0.1166E+01 1.0000 1.0825 -22.7279
7.68 0.1166E+01 1.0000 1.0825 -22.7184
7.70 0.1166E+01 1.0000 1.0825 -22.7090
7.72 0.1166E+01 1.0000 1.0825 -22.6997
7.74 0.1166E+01 1.0000 1.0825 -22.6903
7.76 0.1166E+01 1.0000 1.0825 -22.6810
7.78 0.1166E+01 1.0000 1.0825 -22.6717
7.80 0.1166E+01 1.0000 1.0825 -22.6625
7.82 0.1166E+01 1.0000 1.0825 -22.6534
7.84 0.1166E+01 1.0000 1.0825 -22.6442
7.86 0.1166E+01 1.0000 1.0825 -22.6351
7.88 0.1166E+01 1.0000 1.0825 -22.6261
7.90 0.1166E+01 1.0000 1.0825 -22.6171
7.92 0.1166E+01 1.0000 1.0825 -22.6079
7.94 0.1166E+01 1.0000 1.0825 -22.5990
7.96 0.1166E+01 1.0000 1.0825 -22.5902
7.98 0.1166E+01 1.0000 1.0825 -22.5815
8.00 0.1166E+01 1.0000 1.0825 -22.5726
8.02 0.1166E+01 1.0000 1.0825 -22.5623
8.04 0.1166E+01 1.0000 1.0825 -22.5521
8.06 0.1166E+01 1.0000 1.0825 -22.5419
8.08 0.1166E+01 1.0000 1.0825 -22.5317
8.10 0.1166E+01 1.0000 1.0825 -22.5215
8.12 0.1166E+01 1.0000 1.0825 -22.5115
8.14 0.1166E+01 1.0000 1.0825 -22.5014
8.16 0.1166E+01 1.0000 1.0825 -22.4914
8.18 0.1166E+01 1.0000 1.0825 -22.4814
8.20 0.1166E+01 1.0000 1.0825 -22.4715
8.22 0.1166E+01 1.0000 1.0825 -22.4617
8.24 0.1166E+01 1.0000 1.0825 -22.4518
8.26 0.1166E+01 1.0000 1.0825 -22.4420
8.28 0.1166E+01 1.0000 1.0825 -22.4323
8.30 0.1166E+01 1.0000 1.0825 -22.4226
8.32 0.1166E+01 1.0000 1.0825 -22.4130
8.34 0.1166E+01 1.0000 1.0825 -22.4034
8.36 0.1166E+01 1.0000 1.0825 -22.3938
8.38 0.1166E+01 1.0000 1.0825 -22.3843
8.40 0.1166E+01 1.0000 1.0825 -22.3749
8.42 0.1166E+01 1.0000 1.0825 -22.3655
8.44 0.1166E+01 1.0000 1.0825 -22.3561
8.46 0.1166E+01 1.0000 1.0825 -22.3468
8.48 0.1166E+01 1.0000 1.0825 -22.3375
8.50 0.1166E+01 1.0000 1.0825 -22.3283
8.52 0.1166E+01 1.0000 1.0825 -22.3176
