# Cooling Curve : CIE:[Fe/H] = +1.0
# Z = 0.1
# log(T) ne      nH      nt      log(lambda net)
#
4 2.24169E-03 1.0000 1.0644 -25.209
4.04999 1.40766E-02 1.0000 1.0644 -24.3257
4.09999 7.02011E-02 1.0000 1.0644 -23.2217
4.14999 0.25291 1.0000 1.0644 -22.3308
4.2 0.56683 1.0000 1.0644 -21.8251
4.25001 0.81631 1.0000 1.0644 -21.6841
4.30001 0.93127 1.0000 1.0644 -21.7278
4.35 0.97582 1.0000 1.0644 -21.8262
4.4 0.99837 1.0000 1.0644 -21.9234
4.45 1.0208 1.0000 1.0644 -21.9961
4.5 1.0427 1.0000 1.0644 -22.0395
4.55 1.0554 1.0000 1.0644 -22.0564
4.6 1.0608 1.0000 1.0644 -22.0465
4.65 1.0629 1.0000 1.0644 -22.0128
4.7 1.0641 1.0000 1.0644 -21.9602
4.75 1.0659 1.0000 1.0644 -21.8917
4.8 1.0709 1.0000 1.0644 -21.8128
4.85 1.0825 1.0000 1.0644 -21.7299
4.9 1.0994 1.0000 1.0644 -21.6603
4.95 1.1136 1.0000 1.0644 -21.6102
5 1.1217 1.0000 1.0644 -21.5767
5.05 1.1256 1.0000 1.0644 -21.5506
5.1 1.1274 1.0000 1.0644 -21.519
5.15 1.1283 1.0000 1.0644 -21.481
5.2 1.1287 1.0000 1.0644 -21.4449
5.25 1.1290 1.0000 1.0644 -21.4171
5.3 1.1292 1.0000 1.0644 -21.3967
5.35 1.1293 1.0000 1.0644 -21.3859
5.4 1.1295 1.0000 1.0644 -21.4128
5.45 1.1297 1.0000 1.0644 -21.5318
5.5 1.1299 1.0000 1.0644 -21.7331
5.55 1.1300 1.0000 1.0644 -21.9205
5.6 1.1301 1.0000 1.0644 -22.0398
5.65 1.1301 1.0000 1.0644 -22.0973
5.7 1.1302 1.0000 1.0644 -22.1187
5.75 1.1302 1.0000 1.0644 -22.1386
5.8 1.1302 1.0000 1.0644 -22.2062
5.85 1.1303 1.0000 1.0644 -22.3321
5.9 1.1303 1.0000 1.0644 -22.4431
5.95 1.1304 1.0000 1.0644 -22.5054
6 1.1304 1.0000 1.0644 -22.5482
6.05 1.1304 1.0000 1.0644 -22.5807
6.1 1.1305 1.0000 1.0644 -22.5947
6.15 1.1305 1.0000 1.0644 -22.5965
6.2 1.1306 1.0000 1.0644 -22.5994
6.25 1.1306 1.0000 1.0644 -22.6237
6.3 1.1307 1.0000 1.0644 -22.6857
6.35 1.1308 1.0000 1.0644 -22.7581
6.4 1.1308 1.0000 1.0644 -22.8175
6.45 1.1309 1.0000 1.0644 -22.8607
6.5 1.1310 1.0000 1.0644 -22.889
6.55 1.1310 1.0000 1.0644 -22.9068
6.6 1.1311 1.0000 1.0644 -22.9194
6.65 1.1311 1.0000 1.0644 -22.9299
6.7 1.1311 1.0000 1.0644 -22.9386
6.75 1.1311 1.0000 1.0644 -22.9451
6.8 1.1312 1.0000 1.0644 -22.9462
6.85 1.1312 1.0000 1.0644 -22.9411
6.9 1.1312 1.0000 1.0644 -22.9313
6.95 1.1312 1.0000 1.0644 -22.9203
7 1.1312 1.0000 1.0644 -22.9114
7.05 1.1312 1.0000 1.0644 -22.9061
7.1 1.1312 1.0000 1.0644 -22.903
7.15 1.1312 1.0000 1.0644 -22.8989
7.2 1.1312 1.0000 1.0644 -22.8924
7.25 1.1312 1.0000 1.0644 -22.883
7.3 1.1312 1.0000 1.0644 -22.8713
7.35 1.1312 1.0000 1.0644 -22.8576
7.4 1.1312 1.0000 1.0644 -22.8423
7.45 1.1313 1.0000 1.0644 -22.8258
7.5 1.1313 1.0000 1.0644 -22.8083
7.55 1.1313 1.0000 1.0644 -22.79
7.6 1.1313 1.0000 1.0644 -22.7711
7.65 1.1313 1.0000 1.0644 -22.7514
7.7 1.1313 1.0000 1.0644 -22.7312
7.75 1.1313 1.0000 1.0644 -22.7106
7.8 1.1313 1.0000 1.0644 -22.6895
7.85 1.1313 1.0000 1.0644 -22.6681
7.9 1.1313 1.0000 1.0644 -22.6464
7.95 1.1313 1.0000 1.0644 -22.6244
8 1.1313 1.0000 1.0644 -22.6022
8.05 1.1313 1.0000 1.0644 -22.5799
8.1 1.1313 1.0000 1.0644 -22.5573
8.15 1.1313 1.0000 1.0644 -22.5346
8.2 1.1313 1.0000 1.0644 -22.5117
8.25 1.1313 1.0000 1.0644 -22.4886
8.3 1.1313 1.0000 1.0644 -22.4655
8.35 1.1313 1.0000 1.0644 -22.4422
8.4 1.1313 1.0000 1.0644 -22.4188
8.45 1.1313 1.0000 1.0644 -22.3952
8.5 1.1313 1.0000 1.0644 -22.3716
