# Cooling Curve : CIE:[Fe/H] = -3.0
# Z = 0.001
# log(T) ne      nH      nt      log(lambda net)
#
4 2.23175E-03 1.0000 1.0640 -25.7406
4.04999 1.40510E-02 1.0000 1.0640 -24.4058
4.09999 7.01499E-02 1.0000 1.0640 -23.2421
4.14999 0.25279 1.0000 1.0640 -22.3412
4.2 0.56694 1.0000 1.0640 -21.8346
4.25001 0.81632 1.0000 1.0640 -21.697
4.30001 0.93101 1.0000 1.0640 -21.7475
4.35 0.97548 1.0000 1.0640 -21.8587
4.4 0.99801 1.0000 1.0640 -21.9793
4.45 1.0204 1.0000 1.0640 -22.0906
4.5 1.0423 1.0000 1.0640 -22.1927
4.55 1.0550 1.0000 1.0640 -22.2919
4.6 1.0603 1.0000 1.0640 -22.3858
4.65 1.0625 1.0000 1.0640 -22.4663
4.7 1.0636 1.0000 1.0640 -22.5169
4.75 1.0654 1.0000 1.0640 -22.5035
4.8 1.0703 1.0000 1.0640 -22.4192
4.85 1.0819 1.0000 1.0640 -22.2968
4.9 1.0987 1.0000 1.0640 -22.2223
4.95 1.1129 1.0000 1.0640 -22.2314
5 1.1209 1.0000 1.0640 -22.2934
5.05 1.1247 1.0000 1.0640 -22.3742
5.1 1.1264 1.0000 1.0640 -22.4552
5.15 1.1272 1.0000 1.0640 -22.5289
5.2 1.1276 1.0000 1.0640 -22.5939
5.25 1.1278 1.0000 1.0640 -22.6508
5.3 1.1279 1.0000 1.0640 -22.7005
5.35 1.1279 1.0000 1.0640 -22.7436
5.4 1.1280 1.0000 1.0640 -22.7918
5.45 1.1280 1.0000 1.0640 -22.8558
5.5 1.1280 1.0000 1.0640 -22.9257
5.55 1.1280 1.0000 1.0640 -22.9856
5.6 1.1280 1.0000 1.0640 -23.0303
5.65 1.1280 1.0000 1.0640 -23.0645
5.7 1.1280 1.0000 1.0640 -23.0919
5.75 1.1280 1.0000 1.0640 -23.1186
5.8 1.1280 1.0000 1.0640 -23.1458
5.85 1.1280 1.0000 1.0640 -23.1732
5.9 1.1280 1.0000 1.0640 -23.1946
5.95 1.1280 1.0000 1.0640 -23.2093
6 1.1280 1.0000 1.0640 -23.2198
6.05 1.1280 1.0000 1.0640 -23.2271
6.1 1.1280 1.0000 1.0640 -23.231
6.15 1.1280 1.0000 1.0640 -23.2321
6.2 1.1280 1.0000 1.0640 -23.2312
6.25 1.1280 1.0000 1.0640 -23.2294
6.3 1.1280 1.0000 1.0640 -23.2272
6.35 1.1280 1.0000 1.0640 -23.225
6.4 1.1280 1.0000 1.0640 -23.22
6.45 1.1280 1.0000 1.0640 -23.2127
6.5 1.1280 1.0000 1.0640 -23.2033
6.55 1.1280 1.0000 1.0640 -23.1923
6.6 1.1280 1.0000 1.0640 -23.18
6.65 1.1280 1.0000 1.0640 -23.1666
6.7 1.1280 1.0000 1.0640 -23.1523
6.75 1.1280 1.0000 1.0640 -23.1372
6.8 1.1280 1.0000 1.0640 -23.1213
6.85 1.1280 1.0000 1.0640 -23.1046
6.9 1.1280 1.0000 1.0640 -23.0873
6.95 1.1280 1.0000 1.0640 -23.0695
7 1.1280 1.0000 1.0640 -23.0513
7.05 1.1280 1.0000 1.0640 -23.0327
7.1 1.1280 1.0000 1.0640 -23.0137
7.15 1.1280 1.0000 1.0640 -22.9943
7.2 1.1280 1.0000 1.0640 -22.9746
7.25 1.1280 1.0000 1.0640 -22.9546
7.3 1.1280 1.0000 1.0640 -22.9342
7.35 1.1280 1.0000 1.0640 -22.9135
7.4 1.1280 1.0000 1.0640 -22.8925
7.45 1.1280 1.0000 1.0640 -22.8713
7.5 1.1280 1.0000 1.0640 -22.8499
7.55 1.1280 1.0000 1.0640 -22.8282
7.6 1.1280 1.0000 1.0640 -22.8063
7.65 1.1280 1.0000 1.0640 -22.7842
7.7 1.1280 1.0000 1.0640 -22.7619
7.75 1.1280 1.0000 1.0640 -22.7395
7.8 1.1280 1.0000 1.0640 -22.7169
7.85 1.1280 1.0000 1.0640 -22.6941
7.9 1.1280 1.0000 1.0640 -22.6712
7.95 1.1280 1.0000 1.0640 -22.6482
8 1.1280 1.0000 1.0640 -22.625
8.05 1.1280 1.0000 1.0640 -22.6018
8.1 1.1280 1.0000 1.0640 -22.5784
8.15 1.1280 1.0000 1.0640 -22.5549
8.2 1.1280 1.0000 1.0640 -22.5313
8.25 1.1280 1.0000 1.0640 -22.5076
8.3 1.1280 1.0000 1.0640 -22.4839
8.35 1.1280 1.0000 1.0640 -22.46
8.4 1.1280 1.0000 1.0640 -22.4361
8.45 1.1280 1.0000 1.0640 -22.4121
8.5 1.1280 1.0000 1.0640 -22.388
