# Cooling Curve : CIE: primordial
# Z = 0.0
# log(T) ne      nH      nt      log(lambda net)
#
4 2.23165E-03 1.0000 1.1000 -25.7512
4.04999 1.40551E-02 1.0000 1.1000 -24.4066
4.09999 7.01496E-02 1.0000 1.1000 -23.2423
4.14999 0.25279 1.0000 1.1000 -22.3413
4.2 0.56694 1.0000 1.1000 -21.8347
4.25001 0.81635 1.0000 1.1000 -21.6971
4.30001 0.93124 1.0000 1.1000 -21.7475
4.35 0.97668 1.0000 1.1000 -21.8581
4.4 1.0030 1.0000 1.1000 -21.9761
4.45 1.0346 1.0000 1.1000 -22.0811
4.5 1.0673 1.0000 1.1000 -22.1763
4.55 1.0866 1.0000 1.1000 -22.272
4.6 1.0946 1.0000 1.1000 -22.3648
4.65 1.0978 1.0000 1.1000 -22.4424
4.7 1.0995 1.0000 1.1000 -22.4803
4.75 1.1023 1.0000 1.1000 -22.4355
4.8 1.1100 1.0000 1.1000 -22.3062
4.85 1.1279 1.0000 1.1000 -22.1486
4.9 1.1542 1.0000 1.1000 -22.0568
4.95 1.1763 1.0000 1.1000 -22.0617
5 1.1889 1.0000 1.1000 -22.1278
5.05 1.1948 1.0000 1.1000 -22.2176
5.1 1.1975 1.0000 1.1000 -22.3114
5.15 1.1987 1.0000 1.1000 -22.4015
5.2 1.1993 1.0000 1.1000 -22.4852
5.25 1.1996 1.0000 1.1000 -22.5619
5.3 1.1998 1.0000 1.1000 -22.6317
5.35 1.1999 1.0000 1.1000 -22.6932
5.4 1.1999 1.0000 1.1000 -22.7518
5.45 1.1999 1.0000 1.1000 -22.8036
5.5 1.2000 1.0000 1.1000 -22.8474
5.55 1.2000 1.0000 1.1000 -22.891
5.6 1.2000 1.0000 1.1000 -22.9303
5.65 1.2000 1.0000 1.1000 -22.9656
5.7 1.2000 1.0000 1.1000 -22.997
5.75 1.2000 1.0000 1.1000 -23.0271
5.8 1.2000 1.0000 1.1000 -23.053
5.85 1.2000 1.0000 1.1000 -23.0751
5.9 1.2000 1.0000 1.1000 -23.0935
5.95 1.2000 1.0000 1.1000 -23.1085
6 1.2000 1.0000 1.1000 -23.1203
6.05 1.2000 1.0000 1.1000 -23.1293
6.1 1.2000 1.0000 1.1000 -23.1356
6.15 1.2000 1.0000 1.1000 -23.1394
6.2 1.2000 1.0000 1.1000 -23.141
6.25 1.2000 1.0000 1.1000 -23.1405
6.3 1.2000 1.0000 1.1000 -23.1381
6.35 1.2000 1.0000 1.1000 -23.1362
6.4 1.2000 1.0000 1.1000 -23.1318
6.45 1.2000 1.0000 1.1000 -23.1253
6.5 1.2000 1.0000 1.1000 -23.1169
6.55 1.2000 1.0000 1.1000 -23.1069
6.6 1.2000 1.0000 1.1000 -23.0955
6.65 1.2000 1.0000 1.1000 -23.0828
6.7 1.2000 1.0000 1.1000 -23.0692
6.75 1.2000 1.0000 1.1000 -23.0546
6.8 1.2000 1.0000 1.1000 -23.0392
6.85 1.2000 1.0000 1.1000 -23.0231
6.9 1.2000 1.0000 1.1000 -23.0063
6.95 1.2000 1.0000 1.1000 -22.989
7 1.2000 1.0000 1.1000 -22.9712
7.05 1.2000 1.0000 1.1000 -22.9529
7.1 1.2000 1.0000 1.1000 -22.9341
7.15 1.2000 1.0000 1.1000 -22.915
7.2 1.2000 1.0000 1.1000 -22.8955
7.25 1.2000 1.0000 1.1000 -22.8757
7.3 1.2000 1.0000 1.1000 -22.8556
7.35 1.2000 1.0000 1.1000 -22.8351
7.4 1.2000 1.0000 1.1000 -22.8144
7.45 1.2000 1.0000 1.1000 -22.7934
7.5 1.2000 1.0000 1.1000 -22.7722
7.55 1.2000 1.0000 1.1000 -22.7507
7.6 1.2000 1.0000 1.1000 -22.729
7.65 1.2000 1.0000 1.1000 -22.7071
7.7 1.2000 1.0000 1.1000 -22.6851
7.75 1.2000 1.0000 1.1000 -22.6628
7.8 1.2000 1.0000 1.1000 -22.6404
7.85 1.2000 1.0000 1.1000 -22.6178
7.9 1.2000 1.0000 1.1000 -22.595
7.95 1.2000 1.0000 1.1000 -22.5721
8 1.2000 1.0000 1.1000 -22.5491
8.05 1.2000 1.0000 1.1000 -22.526
8.1 1.2000 1.0000 1.1000 -22.5027
8.15 1.2000 1.0000 1.1000 -22.4793
8.2 1.2000 1.0000 1.1000 -22.4558
8.25 1.2000 1.0000 1.1000 -22.4323
8.3 1.2000 1.0000 1.1000 -22.4086
8.35 1.2000 1.0000 1.1000 -22.3848
8.4 1.2000 1.0000 1.1000 -22.361
8.45 1.2000 1.0000 1.1000 -22.3371
8.5 1.2000 1.0000 1.1000 -22.3131
