# Cooling Curve : CIE:[Fe/H] = -1.5
# Z = 0.0316228
# log(T) ne      nH      nt      log(lambda net)
#
4 2.23484E-03 1.0000 1.0641 -25.4994
4.04999 1.40619E-02 1.0000 1.0641 -24.3794
4.09999 7.01659E-02 1.0000 1.0641 -23.2357
4.14999 0.25256 1.0000 1.0641 -22.3383
4.2 0.56663 1.0000 1.0641 -21.8316
4.25001 0.81632 1.0000 1.0641 -21.693
4.30001 0.93111 1.0000 1.0641 -21.7414
4.35 0.97558 1.0000 1.0641 -21.8484
4.4 0.99812 1.0000 1.0641 -21.9613
4.45 1.0206 1.0000 1.0641 -22.0591
4.5 1.0424 1.0000 1.0641 -22.1393
4.55 1.0551 1.0000 1.0641 -22.2046
4.6 1.0605 1.0000 1.0641 -22.2503
4.65 1.0626 1.0000 1.0641 -22.2706
4.7 1.0638 1.0000 1.0641 -22.2604
4.75 1.0656 1.0000 1.0641 -22.2122
4.8 1.0705 1.0000 1.0641 -22.1314
4.85 1.0821 1.0000 1.0641 -22.034
4.9 1.0989 1.0000 1.0641 -21.9626
4.95 1.1131 1.0000 1.0641 -21.934
5 1.1212 1.0000 1.0641 -21.9315
5.05 1.1250 1.0000 1.0641 -21.9348
5.1 1.1267 1.0000 1.0641 -21.9289
5.15 1.1275 1.0000 1.0641 -21.9117
5.2 1.1279 1.0000 1.0641 -21.8909
5.25 1.1281 1.0000 1.0641 -21.8737
5.3 1.1283 1.0000 1.0641 -21.8609
5.35 1.1284 1.0000 1.0641 -21.8552
5.4 1.1284 1.0000 1.0641 -21.884
5.45 1.1285 1.0000 1.0641 -21.998
5.5 1.1286 1.0000 1.0641 -22.185
5.55 1.1286 1.0000 1.0641 -22.3541
5.6 1.1287 1.0000 1.0641 -22.4605
5.65 1.1287 1.0000 1.0641 -22.5136
5.7 1.1287 1.0000 1.0641 -22.5361
5.75 1.1287 1.0000 1.0641 -22.5574
5.8 1.1287 1.0000 1.0641 -22.617
5.85 1.1287 1.0000 1.0641 -22.7209
5.9 1.1287 1.0000 1.0641 -22.8083
5.95 1.1287 1.0000 1.0641 -22.8565
6 1.1288 1.0000 1.0641 -22.8891
6.05 1.1288 1.0000 1.0641 -22.9134
6.1 1.1288 1.0000 1.0641 -22.9239
6.15 1.1288 1.0000 1.0641 -22.9255
6.2 1.1288 1.0000 1.0641 -22.9271
6.25 1.1288 1.0000 1.0641 -22.9423
6.3 1.1288 1.0000 1.0641 -22.9803
6.35 1.1289 1.0000 1.0641 -23.022
6.4 1.1289 1.0000 1.0641 -23.0523
6.45 1.1289 1.0000 1.0641 -23.071
6.5 1.1289 1.0000 1.0641 -23.0801
6.55 1.1290 1.0000 1.0641 -23.0827
6.6 1.1290 1.0000 1.0641 -23.0817
6.65 1.1290 1.0000 1.0641 -23.0789
6.7 1.1290 1.0000 1.0641 -23.0745
6.75 1.1290 1.0000 1.0641 -23.0683
6.8 1.1290 1.0000 1.0641 -23.0593
6.85 1.1290 1.0000 1.0641 -23.0472
6.9 1.1290 1.0000 1.0641 -23.0329
6.95 1.1290 1.0000 1.0641 -23.0177
7 1.1290 1.0000 1.0641 -23.0031
7.05 1.1290 1.0000 1.0641 -22.9895
7.1 1.1290 1.0000 1.0641 -22.9764
7.15 1.1290 1.0000 1.0641 -22.9626
7.2 1.1290 1.0000 1.0641 -22.9475
7.25 1.1290 1.0000 1.0641 -22.9312
7.3 1.1290 1.0000 1.0641 -22.9138
7.35 1.1290 1.0000 1.0641 -22.8954
7.4 1.1290 1.0000 1.0641 -22.8764
7.45 1.1290 1.0000 1.0641 -22.8567
7.5 1.1290 1.0000 1.0641 -22.8366
7.55 1.1290 1.0000 1.0641 -22.816
7.6 1.1290 1.0000 1.0641 -22.7951
7.65 1.1290 1.0000 1.0641 -22.7738
7.7 1.1290 1.0000 1.0641 -22.7522
7.75 1.1290 1.0000 1.0641 -22.7304
7.8 1.1290 1.0000 1.0641 -22.7083
7.85 1.1290 1.0000 1.0641 -22.6859
7.9 1.1290 1.0000 1.0641 -22.6634
7.95 1.1290 1.0000 1.0641 -22.6407
8 1.1290 1.0000 1.0641 -22.6179
8.05 1.1290 1.0000 1.0641 -22.5949
8.1 1.1290 1.0000 1.0641 -22.5718
8.15 1.1290 1.0000 1.0641 -22.5485
8.2 1.1290 1.0000 1.0641 -22.5251
8.25 1.1290 1.0000 1.0641 -22.5017
8.3 1.1290 1.0000 1.0641 -22.4781
8.35 1.1290 1.0000 1.0641 -22.4544
8.4 1.1290 1.0000 1.0641 -22.4307
8.45 1.1290 1.0000 1.0641 -22.4068
8.5 1.1290 1.0000 1.0641 -22.3829
